#Strain and Orientation Refinement from experimental file: /gpfs/ga/data/projects/smartsic/BLC15805/PROCESSED_DATA/SiC/corfiles_I>2000/img_10066.cor
#File created at Thu May 22 12:50:54 2025 with IndexingSpotsSet.py
#Number of indexed spots: 41
#Element
#3H-SiC
#grainIndex
#G_0
#Mean Deviation(pixel): 0.245
##spot_index Intensity h k l pixDev energy(keV) Xexp Yexp 2theta_exp chi_exp Xtheo Ytheo 2theta_theo chi_theo Qx Qy Qz grainindex
1.000000 39066.920000 0.000000 0.000000 4.000000 0.112057 10.119208 1328.520000 1585.310000 68.399360 -13.676930 1328.481491 1585.204768 68.403687 -13.675051 -0.515784 -0.179415 0.737387 0.000000
2.000000 32158.060000 1.000000 1.000000 5.000000 0.371510 15.418603 979.670000 1850.010000 57.263290 3.682240 979.809159 1849.665538 57.275506 3.675289 -0.571326 0.067066 1.044094 0.000000
10.000000 20445.130000 1.000000 3.000000 5.000000 0.144274 15.105142 513.410000 1634.530000 67.680910 25.560490 513.552073 1634.555108 67.678967 25.554617 -0.755628 0.486182 1.016807 0.000000
12.000000 18874.980000 0.000000 2.000000 6.000000 0.396992 13.614908 897.820000 1269.900000 82.657540 7.933030 898.172920 1269.718203 82.666307 7.915529 -0.957977 0.149993 1.078793 0.000000
15.000000 15569.580000 -1.000000 -1.000000 5.000000 0.360967 12.262426 1782.870000 1510.090000 74.116160 -32.826040 1782.768307 1510.436346 74.101866 -32.822496 -0.718132 -0.515605 0.799373 0.000000
28.000000 10097.190000 -1.000000 -1.000000 7.000000 0.241243 17.043046 1639.730000 1512.210000 73.148310 -27.402650 1639.512631 1512.314639 73.142694 -27.393992 -0.976024 -0.605313 1.168066 0.000000
30.000000 9990.890000 1.000000 1.000000 7.000000 0.343185 20.065453 1071.160000 1754.370000 60.806900 -0.932680 1070.874530 1754.179520 60.814131 -0.918143 -0.829218 -0.022641 1.412788 0.000000
37.000000 9123.520000 -2.000000 0.000000 6.000000 0.224215 11.802468 1644.680000 919.550000 99.227820 -27.417610 1644.697513 919.326470 99.237544 -27.418238 -1.104783 -0.432678 0.834071 0.000000
40.000000 8817.530000 -1.000000 1.000000 7.000000 0.158011 14.330634 1240.870000 1120.380000 90.212330 -9.270060 1240.869948 1120.221988 90.220224 -9.270007 -1.160325 -0.186196 1.140779 0.000000
42.000000 8709.050000 1.000000 3.000000 7.000000 0.225065 18.985181 730.550000 1544.190000 70.229750 15.975690 730.693458 1544.016581 70.236675 15.968999 -1.013520 0.396475 1.385500 0.000000
61.000000 7179.590000 0.000000 4.000000 8.000000 0.304299 18.626912 673.650000 1203.060000 86.095670 18.666220 673.950039 1203.009257 86.097862 18.652584 -1.400170 0.479401 1.420199 0.000000
63.000000 7087.980000 2.000000 4.000000 6.000000 0.102683 22.517161 427.400000 1976.590000 56.398510 28.967940 427.403794 1976.487387 56.401650 28.967804 -0.811171 0.732664 1.323514 0.000000
65.000000 6914.100000 -2.000000 2.000000 8.000000 0.331051 15.169336 1157.500000 812.770000 105.314100 -5.027150 1157.374441 812.463684 105.328546 -5.020755 -1.546976 -0.103270 1.175477 0.000000
68.000000 6525.750000 -1.000000 3.000000 7.000000 0.199822 14.301469 820.190000 927.960000 99.539210 11.823630 820.373100 928.040019 99.535709 11.814741 -1.344627 0.232919 1.113491 0.000000
74.000000 6139.170000 -2.000000 -2.000000 8.000000 0.526115 19.927403 1919.030000 1521.800000 74.539350 -37.441860 1918.688026 1522.199813 74.522176 -37.431038 -1.178373 -0.941502 1.230052 0.000000
86.000000 5662.090000 -2.000000 4.000000 6.000000 0.133773 12.381936 469.760000 429.570000 118.380160 27.481600 469.626545 429.579226 118.378666 27.486901 -1.473385 0.405554 0.779496 0.000000
95.000000 5379.420000 -1.000000 1.000000 3.000000 0.219925 5.560995 1078.330000 572.970000 115.904000 -0.969670 1078.200252 572.792426 115.911257 -0.963071 -0.644542 -0.006781 0.403392 0.000000
106.000000 5104.170000 -1.000000 3.000000 5.000000 0.181909 10.494695 567.480000 755.610000 106.484700 23.414780 567.334120 755.501327 106.488562 23.421009 -1.086735 0.322627 0.744798 0.000000
107.000000 5082.340000 -1.000000 1.000000 5.000000 0.320137 9.752979 1198.770000 954.880000 98.450510 -7.133020 1198.578891 954.623163 98.463246 -7.123423 -0.902434 -0.096489 0.772085 0.000000
125.000000 4414.490000 1.000000 5.000000 5.000000 0.312276 17.689461 20.520000 1673.250000 70.056340 42.451320 20.387261 1673.532660 70.048013 42.454981 -0.939929 0.905298 0.989520 0.000000
126.000000 4405.280000 2.000000 2.000000 8.000000 0.885945 26.551287 904.580000 1946.290000 54.092950 7.435540 904.948454 1947.095693 54.065157 7.416941 -0.884761 0.223840 1.719495 0.000000
127.000000 4309.520000 -1.000000 1.000000 9.000000 0.189004 19.083566 1262.560000 1215.550000 85.484450 -10.365470 1262.414297 1215.429612 85.490275 -10.358290 -1.418217 -0.275904 1.509472 0.000000
131.000000 4255.210000 -3.000000 1.000000 7.000000 0.230686 12.890921 1515.940000 536.710000 115.738450 -21.930610 1515.901637 536.482526 115.747346 -21.928870 -1.491433 -0.349752 0.868770 0.000000
186.000000 3244.930000 -4.000000 0.000000 8.000000 0.091190 15.392327 1894.710000 577.100000 111.365970 -36.386740 1894.784438 577.152675 111.363516 -36.389194 -1.693782 -0.685941 0.930755 0.000000
188.000000 3223.020000 -1.000000 5.000000 7.000000 0.192947 15.985213 377.870000 870.160000 100.710450 30.968730 377.677343 870.170580 100.709180 30.975897 -1.528928 0.652035 1.086204 0.000000
210.000000 2940.700000 1.000000 5.000000 7.000000 0.200491 20.414763 375.600000 1493.340000 74.182410 30.991490 375.792806 1493.285024 74.183539 30.984313 -1.197821 0.815591 1.358213 0.000000
220.000000 2828.650000 -2.000000 0.000000 10.000000 0.073348 20.925307 1496.590000 1174.420000 87.716200 -21.284360 1496.519628 1174.399321 87.717105 -21.281256 -1.620566 -0.612094 1.571458 0.000000
263.000000 2508.480000 -3.000000 1.000000 9.000000 0.264822 16.954878 1460.550000 776.480000 106.200060 -19.557780 1460.410470 776.254918 106.210510 -19.551444 -1.749324 -0.439459 1.237463 0.000000
279.000000 2372.430000 -3.000000 3.000000 7.000000 0.233685 13.025102 966.910000 279.690000 126.518130 4.723570 967.134642 279.754378 126.516531 4.712295 -1.675734 0.069364 0.841482 0.000000
284.000000 2355.340000 -1.000000 -1.000000 9.000000 0.160811 21.940283 1565.100000 1520.150000 72.380550 -24.341990 1564.945630 1520.195055 72.377775 -24.335504 -1.233916 -0.695020 1.536759 0.000000
294.000000 2275.760000 -2.000000 6.000000 8.000000 0.230136 17.688616 315.570000 625.010000 110.046180 33.250820 315.525761 625.235844 110.037436 33.252364 -1.915578 0.734962 1.120902 0.000000
319.000000 2074.620000 -4.000000 2.000000 10.000000 0.227130 18.306707 1377.230000 537.750000 116.514620 -15.659040 1377.165058 537.532352 116.523412 -15.655931 -2.135975 -0.356533 1.272161 0.000000
336.000000 2015.500000 -2.000000 2.000000 4.000000 0.343187 7.580959 864.230000 33.700000 133.351120 9.874610 864.523904 33.877194 133.347780 9.860189 -1.031192 0.076145 0.438090 0.000000
384.000000 1773.650000 -2.000000 4.000000 10.000000 0.198375 19.660804 888.770000 821.380000 104.741160 8.486900 888.923881 821.505193 104.735628 8.479256 -1.989169 0.226138 1.516883 0.000000
462.000000 1489.170000 1.000000 3.000000 9.000000 0.283756 23.343743 856.280000 1516.480000 71.043420 9.931010 856.517261 1516.324357 71.049818 9.919371 -1.271411 0.306767 1.754194 0.000000
492.000000 1401.100000 -1.000000 5.000000 9.000000 0.076377 19.517071 619.520000 955.770000 97.765150 21.130310 619.484586 955.837671 97.761927 21.131857 -1.786820 0.562328 1.454897 0.000000
515.000000 1314.820000 1.000000 1.000000 9.000000 0.402932 24.908136 1124.500000 1708.460000 62.673080 -3.622700 1124.222358 1708.167991 62.684364 -3.608576 -1.087110 -0.112349 1.781481 0.000000
522.000000 1304.030000 -3.000000 -1.000000 9.000000 0.123976 18.957342 1824.430000 1095.490000 91.351880 -34.168200 1824.498698 1095.593202 91.347536 -34.170611 -1.565023 -0.858575 1.264750 0.000000
530.000000 1293.130000 -3.000000 5.000000 7.000000 0.155470 14.534904 380.010000 160.570000 125.919020 30.959440 379.944585 160.711038 125.914339 30.961855 -1.860035 0.488480 0.814195 0.000000
573.000000 1202.540000 -3.000000 5.000000 9.000000 0.082091 17.689884 677.310000 458.730000 118.973140 18.630150 677.315927 458.811877 118.970192 18.629869 -2.117927 0.398772 1.182888 0.000000
647.000000 1057.240000 -5.000000 1.000000 9.000000 0.188128 16.757438 1769.700000 270.350000 122.634130 -31.982490 1769.866403 270.437761 122.629777 -31.988562 -2.080432 -0.603015 0.965454 0.000000
#UB matrix in q= (UB) B0 G* 
#[[ 0.721747473 -0.401739929 -0.562152508]
# [ 0.356517663  0.913589015 -0.195544825]
# [ 0.592925265 -0.05948098   0.803677836]]
#B0 matrix in q= UB (B0) G*
#[[ 0.22937884 -0.         -0.        ]
# [ 0.          0.22937884 -0.        ]
# [ 0.          0.          0.22937884]]
#UBB0 matrix in q= (UB B0) G* i.e. recip. basis vectors are columns in LT frame: astar = UBB0[:,0], bstar = UBB0[:,1], cstar = UBB0[:,2]. (abcstar as columns on xyzlab1, xlab1 = ui, ui = unit vector along incident beam)
#[[ 0.1655536  -0.09215064 -0.12894589]
# [ 0.08177761  0.20955799 -0.04485385]
# [ 0.13600451 -0.01364368  0.18434669]]
#Euler angles phi theta psi (deg)
#[ 84.244  36.588 109.132]
#deviatoric strain in direct crystal frame (10-3 unit)
#[[-0.19  0.31 -0.54]
# [ 0.31  0.1  -0.24]
# [-0.54 -0.24  0.08]]
#deviatoric strain in sample2 frame (10-3 unit)
#[[ 0.14 -0.05 -0.66]
# [-0.05 -0.11  0.11]
# [-0.66  0.11 -0.03]]
#new lattice parameters
#[ 4.3596     4.3608483  4.3608352 90.0280135 90.0615356 89.9648978]
#CCDLabel
#sCMOS
#DetectorParameters
#[83.045, 1056.15, 1128.75, 0.259, 0.308]
#pixelsize
#0.0734
#Frame dimensions
#[2018.0, 2016.0]
#
